#  E (eV)   dos(E)     Int dos(E) EFermi =   6.938 eV
 -10.000  0.2498E-84  0.1249E-85
  -9.950  0.2498E-84  0.2498E-85
  -9.900  0.2498E-84  0.3748E-85
  -9.850  0.2498E-84  0.4997E-85
  -9.800  0.2498E-84  0.6246E-85
  -9.750  0.2498E-84  0.7495E-85
  -9.700  0.2498E-84  0.8745E-85
  -9.650  0.2498E-84  0.9994E-85
  -9.600  0.2498E-84  0.1124E-84
  -9.550  0.2498E-84  0.1249E-84
  -9.500  0.2498E-84  0.1374E-84
  -9.450  0.2498E-84  0.1499E-84
  -9.400  0.2498E-84  0.1624E-84
  -9.350  0.2498E-84  0.1749E-84
  -9.300  0.2498E-84  0.1874E-84
  -9.250  0.2498E-84  0.1999E-84
  -9.200  0.2498E-84  0.2124E-84
  -9.150  0.2498E-84  0.2249E-84
  -9.100  0.2498E-84  0.2374E-84
  -9.050  0.2498E-84  0.2498E-84
  -9.000  0.2498E-84  0.2623E-84
  -8.950  0.2498E-84  0.2748E-84
  -8.900  0.2498E-84  0.2873E-84
  -8.850  0.2498E-84  0.2998E-84
  -8.800  0.2498E-84  0.3123E-84
  -8.750  0.2498E-84  0.3248E-84
  -8.700  0.2498E-84  0.3373E-84
  -8.650  0.2498E-84  0.3498E-84
  -8.600  0.2498E-84  0.3623E-84
  -8.550  0.2498E-84  0.3748E-84
  -8.500  0.2498E-84  0.3873E-84
  -8.450  0.2498E-84  0.3998E-84
  -8.400  0.2498E-84  0.4123E-84
  -8.350  0.2498E-84  0.4247E-84
  -8.300  0.2498E-84  0.4372E-84
  -8.250  0.2498E-84  0.4497E-84
  -8.200  0.2498E-84  0.4622E-84
  -8.150  0.2498E-84  0.4747E-84
  -8.100  0.2498E-84  0.4872E-84
  -8.050  0.2498E-84  0.4997E-84
  -8.000  0.2498E-84  0.5122E-84
  -7.950  0.2498E-84  0.5247E-84
  -7.900  0.2498E-84  0.5372E-84
  -7.850  0.2498E-84  0.5497E-84
  -7.800  0.2498E-84  0.5622E-84
  -7.750  0.2498E-84  0.5747E-84
  -7.700  0.2498E-84  0.5871E-84
  -7.650  0.2498E-84  0.5996E-84
  -7.600  0.2498E-84  0.6121E-84
  -7.550  0.2498E-84  0.6246E-84
  -7.500  0.2498E-84  0.6371E-84
  -7.450  0.2498E-84  0.6496E-84
  -7.400  0.2498E-84  0.6621E-84
  -7.350  0.2498E-84  0.6746E-84
  -7.300  0.2498E-84  0.6871E-84
  -7.250  0.2498E-84  0.6996E-84
  -7.200  0.2498E-84  0.7121E-84
  -7.150  0.2498E-84  0.7246E-84
  -7.100  0.2498E-84  0.7371E-84
  -7.050  0.2498E-84  0.7495E-84
  -7.000  0.2498E-84  0.7620E-84
  -6.950  0.2498E-84  0.7745E-84
  -6.900  0.2498E-84  0.7870E-84
  -6.850  0.2498E-84  0.7995E-84
  -6.800  0.2498E-84  0.8120E-84
  -6.750  0.2498E-84  0.8245E-84
  -6.700  0.2498E-84  0.8370E-84
  -6.650  0.2498E-84  0.8495E-84
  -6.600  0.2498E-84  0.8620E-84
  -6.550  0.2498E-84  0.8745E-84
  -6.500  0.2498E-84  0.8870E-84
  -6.450  0.2498E-84  0.8995E-84
  -6.400  0.2498E-84  0.9120E-84
  -6.350  0.2498E-84  0.9244E-84
  -6.300  0.2498E-84  0.9369E-84
  -6.250  0.1234E-83  0.9986E-84
  -6.200  0.3182E-72  0.1591E-73
  -6.150  0.1393E-61  0.6965E-63
  -6.100  0.8253E-52  0.4127E-53
  -6.050  0.6618E-43  0.3309E-44
  -6.000  0.7181E-35  0.3591E-36
  -5.950  0.1055E-27  0.5273E-29
  -5.900  0.2096E-21  0.1048E-22
  -5.850  0.5638E-16  0.2819E-17
  -5.800  0.2052E-11  0.1026E-12
  -5.750  0.1011E-07  0.5056E-09
  -5.700  0.6741E-05  0.3376E-06
  -5.650  0.6084E-03  0.3076E-04
  -5.600  0.7501E-02  0.4058E-03
  -5.550  0.1846E-01  0.1329E-02
  -5.500  0.7975E-01  0.5316E-02
  -5.450  0.1648E+00  0.1356E-01
  -5.400  0.7412E-01  0.1726E-01
  -5.350  0.7154E-01  0.2084E-01
  -5.300  0.1658E+00  0.2913E-01
  -5.250  0.2088E+00  0.3957E-01
  -5.200  0.3926E+00  0.5920E-01
  -5.150  0.1686E+00  0.6763E-01
  -5.100  0.3779E-01  0.6952E-01
  -5.050  0.8520E-01  0.7378E-01
  -5.000  0.1834E+00  0.8295E-01
  -4.950  0.5255E+00  0.1092E+00
  -4.900  0.3812E+00  0.1283E+00
  -4.850  0.1443E+00  0.1355E+00
  -4.800  0.3169E+00  0.1513E+00
  -4.750  0.2755E+00  0.1651E+00
  -4.700  0.4222E+00  0.1862E+00
  -4.650  0.1789E+00  0.1952E+00
  -4.600  0.5571E-01  0.1980E+00
  -4.550  0.1663E+00  0.2063E+00
  -4.500  0.3336E+00  0.2230E+00
  -4.450  0.9153E+00  0.2687E+00
  -4.400  0.5530E+00  0.2964E+00
  -4.350  0.1211E+00  0.3024E+00
  -4.300  0.3007E+00  0.3175E+00
  -4.250  0.4165E+00  0.3383E+00
  -4.200  0.5054E+00  0.3635E+00
  -4.150  0.3471E+00  0.3809E+00
  -4.100  0.1359E+00  0.3877E+00
  -4.050  0.1070E+00  0.3930E+00
  -4.000  0.3223E+00  0.4092E+00
  -3.950  0.8272E+00  0.4505E+00
  -3.900  0.5270E+00  0.4769E+00
  -3.850  0.5461E+00  0.5042E+00
  -3.800  0.6875E+00  0.5385E+00
  -3.750  0.6798E+00  0.5725E+00
  -3.700  0.6762E+00  0.6063E+00
  -3.650  0.1603E+00  0.6144E+00
  -3.600  0.6068E-01  0.6174E+00
  -3.550  0.4557E+00  0.6402E+00
  -3.500  0.6207E+00  0.6712E+00
  -3.450  0.3523E+00  0.6888E+00
  -3.400  0.4898E+00  0.7133E+00
  -3.350  0.5637E+00  0.7415E+00
  -3.300  0.1095E+01  0.7963E+00
  -3.250  0.7674E+00  0.8346E+00
  -3.200  0.2393E+00  0.8466E+00
  -3.150  0.8683E+00  0.8900E+00
  -3.100  0.1043E+01  0.9422E+00
  -3.050  0.7719E+00  0.9808E+00
  -3.000  0.8770E+00  0.1025E+01
  -2.950  0.6618E+00  0.1058E+01
  -2.900  0.2902E+00  0.1072E+01
  -2.850  0.3467E+00  0.1090E+01
  -2.800  0.5488E+00  0.1117E+01
  -2.750  0.1181E+01  0.1176E+01
  -2.700  0.8825E+00  0.1220E+01
  -2.650  0.1101E+01  0.1275E+01
  -2.600  0.1145E+01  0.1332E+01
  -2.550  0.2500E+00  0.1345E+01
  -2.500  0.4023E+00  0.1365E+01
  -2.450  0.1014E+01  0.1416E+01
  -2.400  0.8292E+00  0.1457E+01
  -2.350  0.4367E+00  0.1479E+01
  -2.300  0.5129E+00  0.1505E+01
  -2.250  0.6273E+00  0.1536E+01
  -2.200  0.1898E+00  0.1546E+01
  -2.150  0.3287E+00  0.1562E+01
  -2.100  0.9736E+00  0.1611E+01
  -2.050  0.9911E+00  0.1660E+01
  -2.000  0.1055E+01  0.1713E+01
  -1.950  0.2457E+00  0.1725E+01
  -1.900  0.8368E-02  0.1726E+01
  -1.850  0.2065E-01  0.1727E+01
  -1.800  0.3405E+00  0.1744E+01
  -1.750  0.8867E+00  0.1788E+01
  -1.700  0.5741E+00  0.1817E+01
  -1.650  0.6500E+00  0.1849E+01
  -1.600  0.3055E+00  0.1865E+01
  -1.550  0.3076E+00  0.1880E+01
  -1.500  0.7231E+00  0.1916E+01
  -1.450  0.4947E+00  0.1941E+01
  -1.400  0.1347E+00  0.1948E+01
  -1.350  0.8391E-02  0.1948E+01
  -1.300  0.3857E-01  0.1950E+01
  -1.250  0.1516E+00  0.1957E+01
  -1.200  0.8773E-01  0.1962E+01
  -1.150  0.9155E-01  0.1966E+01
  -1.100  0.2997E+00  0.1981E+01
  -1.050  0.2870E+00  0.1996E+01
  -1.000  0.2585E+00  0.2009E+01
  -0.950  0.3585E+00  0.2027E+01
  -0.900  0.2472E+00  0.2039E+01
  -0.850  0.1929E+00  0.2049E+01
  -0.800  0.6522E-01  0.2052E+01
  -0.750  0.3560E-02  0.2052E+01
  -0.700  0.2844E-04  0.2052E+01
  -0.650  0.6744E-03  0.2052E+01
  -0.600  0.3526E-01  0.2054E+01
  -0.550  0.2504E+00  0.2066E+01
  -0.500  0.2752E+00  0.2080E+01
  -0.450  0.5175E+00  0.2106E+01
  -0.400  0.1611E+01  0.2187E+01
  -0.350  0.1363E+01  0.2255E+01
  -0.300  0.8407E+00  0.2297E+01
  -0.250  0.2469E+00  0.2309E+01
  -0.200  0.5934E+00  0.2339E+01
  -0.150  0.1701E+01  0.2424E+01
  -0.100  0.1954E+01  0.2522E+01
  -0.050  0.1141E+01  0.2579E+01
   0.000  0.1099E+01  0.2634E+01
   0.050  0.5428E+00  0.2661E+01
   0.100  0.8127E+00  0.2701E+01
   0.150  0.7969E+00  0.2741E+01
   0.200  0.5685E+00  0.2770E+01
   0.250  0.9625E+00  0.2818E+01
   0.300  0.1209E+01  0.2878E+01
   0.350  0.1169E+01  0.2937E+01
   0.400  0.5496E+00  0.2964E+01
   0.450  0.2395E+00  0.2976E+01
   0.500  0.3220E+00  0.2992E+01
   0.550  0.5796E+00  0.3021E+01
   0.600  0.2677E+00  0.3035E+01
   0.650  0.5764E+00  0.3063E+01
   0.700  0.8386E+00  0.3105E+01
   0.750  0.5332E+00  0.3132E+01
   0.800  0.6106E+00  0.3162E+01
   0.850  0.1592E+00  0.3170E+01
   0.900  0.1554E+00  0.3178E+01
   0.950  0.3390E+00  0.3195E+01
   1.000  0.4771E+00  0.3219E+01
   1.050  0.9275E+00  0.3265E+01
   1.100  0.7505E+00  0.3303E+01
   1.150  0.3697E+00  0.3321E+01
   1.200  0.2676E+00  0.3335E+01
   1.250  0.7683E-01  0.3339E+01
   1.300  0.2766E+00  0.3352E+01
   1.350  0.5162E+00  0.3378E+01
   1.400  0.3942E+00  0.3398E+01
   1.450  0.6360E+00  0.3430E+01
   1.500  0.2570E+00  0.3443E+01
   1.550  0.1456E-01  0.3443E+01
   1.600  0.2018E-01  0.3444E+01
   1.650  0.2033E+00  0.3455E+01
   1.700  0.2789E+00  0.3468E+01
   1.750  0.6429E-01  0.3472E+01
   1.800  0.3017E+00  0.3487E+01
   1.850  0.1041E+01  0.3539E+01
   1.900  0.7432E+00  0.3576E+01
   1.950  0.2416E+00  0.3588E+01
   2.000  0.2817E-01  0.3589E+01
   2.050  0.8934E-01  0.3594E+01
   2.100  0.2631E+00  0.3607E+01
   2.150  0.3528E+00  0.3625E+01
   2.200  0.2122E+00  0.3635E+01
   2.250  0.6548E+00  0.3668E+01
   2.300  0.1517E+01  0.3744E+01
   2.350  0.1359E+01  0.3812E+01
   2.400  0.9825E+00  0.3861E+01
   2.450  0.9879E+00  0.3910E+01
   2.500  0.5540E+00  0.3938E+01
   2.550  0.6094E+00  0.3969E+01
   2.600  0.1054E+01  0.4021E+01
   2.650  0.1268E+01  0.4085E+01
   2.700  0.1081E+01  0.4139E+01
   2.750  0.5595E+00  0.4167E+01
   2.800  0.1168E+01  0.4225E+01
   2.850  0.1463E+01  0.4298E+01
   2.900  0.7611E+00  0.4336E+01
   2.950  0.8192E+00  0.4377E+01
   3.000  0.7381E+00  0.4414E+01
   3.050  0.9767E+00  0.4463E+01
   3.100  0.1406E+01  0.4533E+01
   3.150  0.1289E+01  0.4598E+01
   3.200  0.1345E+01  0.4665E+01
   3.250  0.7747E+00  0.4704E+01
   3.300  0.6767E+00  0.4738E+01
   3.350  0.4336E+00  0.4759E+01
   3.400  0.5162E+00  0.4785E+01
   3.450  0.1372E+01  0.4854E+01
   3.500  0.1667E+01  0.4937E+01
   3.550  0.1100E+01  0.4992E+01
   3.600  0.3874E+00  0.5011E+01
   3.650  0.7321E+00  0.5048E+01
   3.700  0.1512E+01  0.5124E+01
   3.750  0.1555E+01  0.5201E+01
   3.800  0.1644E+01  0.5284E+01
   3.850  0.1371E+01  0.5352E+01
   3.900  0.1377E+01  0.5421E+01
   3.950  0.1118E+01  0.5477E+01
   4.000  0.9209E+00  0.5523E+01
   4.050  0.1913E+01  0.5619E+01
   4.100  0.1313E+01  0.5684E+01
   4.150  0.1220E+01  0.5745E+01
   4.200  0.1580E+01  0.5824E+01
   4.250  0.1028E+01  0.5876E+01
   4.300  0.2029E+01  0.5977E+01
   4.350  0.2019E+01  0.6078E+01
   4.400  0.1111E+01  0.6133E+01
   4.450  0.5661E+00  0.6162E+01
   4.500  0.6023E+00  0.6192E+01
   4.550  0.1195E+01  0.6252E+01
   4.600  0.2278E+01  0.6366E+01
   4.650  0.1383E+01  0.6435E+01
   4.700  0.5406E+00  0.6462E+01
   4.750  0.7308E+00  0.6498E+01
   4.800  0.1155E+01  0.6556E+01
   4.850  0.1108E+01  0.6611E+01
   4.900  0.8053E+00  0.6652E+01
   4.950  0.1304E+01  0.6717E+01
   5.000  0.1308E+01  0.6782E+01
   5.050  0.1196E+01  0.6842E+01
   5.100  0.1344E+01  0.6909E+01
   5.150  0.1758E+01  0.6997E+01
   5.200  0.1208E+01  0.7058E+01
   5.250  0.1575E+01  0.7136E+01
   5.300  0.1169E+01  0.7195E+01
   5.350  0.3753E+00  0.7214E+01
   5.400  0.6073E+00  0.7244E+01
   5.450  0.9608E+00  0.7292E+01
   5.500  0.1314E+01  0.7358E+01
   5.550  0.1591E+01  0.7437E+01
   5.600  0.1132E+01  0.7494E+01
   5.650  0.6316E+00  0.7525E+01
   5.700  0.5163E+00  0.7551E+01
   5.750  0.3833E+00  0.7570E+01
   5.800  0.1328E+00  0.7577E+01
   5.850  0.7168E+00  0.7613E+01
   5.900  0.1211E+01  0.7673E+01
   5.950  0.9253E+00  0.7720E+01
   6.000  0.5240E+00  0.7746E+01
   6.050  0.4594E+00  0.7769E+01
   6.100  0.4457E+00  0.7791E+01
   6.150  0.3678E+00  0.7810E+01
   6.200  0.6205E+00  0.7841E+01
   6.250  0.3867E+00  0.7860E+01
   6.300  0.4729E+00  0.7884E+01
   6.350  0.3565E+00  0.7901E+01
   6.400  0.1731E+00  0.7910E+01
   6.450  0.3630E+00  0.7928E+01
   6.500  0.2035E+00  0.7938E+01
   6.550  0.2820E+00  0.7952E+01
   6.600  0.2120E+00  0.7963E+01
   6.650  0.2254E-01  0.7964E+01
   6.700  0.1700E-01  0.7965E+01
   6.750  0.1695E+00  0.7973E+01
   6.800  0.3145E+00  0.7989E+01
   6.850  0.1370E+00  0.7996E+01
   6.900  0.3346E-01  0.7998E+01
   6.950  0.3730E-01  0.8000E+01
   7.000  0.8604E-02  0.8000E+01
   7.050  0.2698E-03  0.8000E+01
   7.100  0.1146E-05  0.8000E+01
   7.150  0.1825E-05  0.8000E+01
   7.200  0.4611E-03  0.8000E+01
   7.250  0.1577E-01  0.8001E+01
   7.300  0.7306E-01  0.8005E+01
   7.350  0.5035E-01  0.8007E+01
   7.400  0.5750E-01  0.8010E+01
   7.450  0.1825E+00  0.8019E+01
   7.500  0.3967E+00  0.8039E+01
   7.550  0.1861E+00  0.8048E+01
   7.600  0.9606E-01  0.8053E+01
   7.650  0.4150E+00  0.8074E+01
   7.700  0.3004E+00  0.8089E+01
   7.750  0.7301E-01  0.8092E+01
   7.800  0.2630E+00  0.8106E+01
   7.850  0.2548E+00  0.8118E+01
   7.900  0.1452E+00  0.8126E+01
   7.950  0.2330E+00  0.8137E+01
   8.000  0.7944E+00  0.8177E+01
   8.050  0.8137E+00  0.8218E+01
   8.100  0.6696E+00  0.8251E+01
   8.150  0.4170E+00  0.8272E+01
   8.200  0.4718E+00  0.8296E+01
   8.250  0.6840E+00  0.8330E+01
   8.300  0.9412E+00  0.8377E+01
   8.350  0.7382E+00  0.8414E+01
   8.400  0.1847E+00  0.8423E+01
   8.450  0.1209E+00  0.8429E+01
   8.500  0.7848E+00  0.8468E+01
   8.550  0.1539E+01  0.8545E+01
   8.600  0.1172E+01  0.8604E+01
   8.650  0.8705E+00  0.8647E+01
   8.700  0.9260E+00  0.8694E+01
   8.750  0.5835E+00  0.8723E+01
   8.800  0.3003E+00  0.8738E+01
   8.850  0.6913E+00  0.8772E+01
   8.900  0.9897E+00  0.8822E+01
   8.950  0.9983E+00  0.8872E+01
   9.000  0.1312E+01  0.8937E+01
   9.050  0.6102E+00  0.8968E+01
   9.100  0.8914E+00  0.9012E+01
   9.150  0.9401E+00  0.9059E+01
   9.200  0.1299E+01  0.9124E+01
   9.250  0.2053E+01  0.9227E+01
   9.300  0.1086E+01  0.9281E+01
   9.350  0.7915E+00  0.9321E+01
   9.400  0.1311E+01  0.9386E+01
   9.450  0.1245E+01  0.9449E+01
   9.500  0.1311E+01  0.9514E+01
   9.550  0.2135E+01  0.9621E+01
   9.600  0.2396E+01  0.9741E+01
   9.650  0.2116E+01  0.9847E+01
   9.700  0.1350E+01  0.9914E+01
   9.750  0.6667E+00  0.9947E+01
   9.800  0.7600E+00  0.9985E+01
   9.850  0.1151E+01  0.1004E+02
   9.900  0.1694E+01  0.1013E+02
   9.950  0.2012E+01  0.1023E+02
  10.000  0.8798E+00  0.1027E+02
  10.050  0.4438E+00  0.1029E+02
  10.100  0.1528E+01  0.1037E+02
  10.150  0.2422E+01  0.1049E+02
  10.200  0.2132E+01  0.1060E+02
  10.250  0.1305E+01  0.1066E+02
  10.300  0.1229E+01  0.1073E+02
  10.350  0.1137E+01  0.1078E+02
  10.400  0.1546E+01  0.1086E+02
  10.450  0.1692E+01  0.1094E+02
  10.500  0.1512E+01  0.1102E+02
  10.550  0.1688E+01  0.1110E+02
  10.600  0.2007E+01  0.1120E+02
  10.650  0.1870E+01  0.1130E+02
  10.700  0.1868E+01  0.1139E+02
  10.750  0.2118E+01  0.1150E+02
  10.800  0.6587E+00  0.1153E+02
  10.850  0.4840E+00  0.1155E+02
  10.900  0.7336E+00  0.1159E+02
  10.950  0.9055E+00  0.1164E+02
  11.000  0.6109E+00  0.1167E+02
  11.050  0.7344E+00  0.1170E+02
  11.100  0.1592E+01  0.1178E+02
  11.150  0.1893E+01  0.1188E+02
  11.200  0.3048E+01  0.1203E+02
  11.250  0.2303E+01  0.1215E+02
  11.300  0.4497E+00  0.1217E+02
  11.350  0.7935E+00  0.1221E+02
  11.400  0.1326E+01  0.1227E+02
  11.450  0.7916E+00  0.1231E+02
  11.500  0.4184E+00  0.1233E+02
  11.550  0.7676E+00  0.1237E+02
  11.600  0.1723E+01  0.1246E+02
  11.650  0.2432E+01  0.1258E+02
  11.700  0.1963E+01  0.1268E+02
  11.750  0.7697E+00  0.1272E+02
  11.800  0.8932E+00  0.1276E+02
  11.850  0.1693E+01  0.1285E+02
  11.900  0.1599E+01  0.1293E+02
  11.950  0.1083E+01  0.1298E+02
  12.000  0.5533E+00  0.1301E+02
  12.050  0.9903E+00  0.1306E+02
  12.100  0.1260E+01  0.1312E+02
  12.150  0.7333E+00  0.1316E+02
  12.200  0.7259E+00  0.1319E+02
  12.250  0.1035E+01  0.1325E+02
  12.300  0.6610E+00  0.1328E+02
  12.350  0.8864E+00  0.1332E+02
  12.400  0.1052E+01  0.1338E+02
  12.450  0.8469E+00  0.1342E+02
  12.500  0.1055E+01  0.1347E+02
  12.550  0.1478E+01  0.1354E+02
  12.600  0.1317E+01  0.1361E+02
  12.650  0.8083E+00  0.1365E+02
  12.700  0.3992E+00  0.1367E+02
  12.750  0.2733E+00  0.1368E+02
  12.800  0.5689E+00  0.1371E+02
  12.850  0.7654E+00  0.1375E+02
  12.900  0.1200E+01  0.1381E+02
  12.950  0.1848E+01  0.1390E+02
  13.000  0.2192E+01  0.1401E+02
  13.050  0.1267E+01  0.1408E+02
  13.100  0.5625E+00  0.1410E+02
  13.150  0.1952E+01  0.1420E+02
  13.200  0.1877E+01  0.1430E+02
  13.250  0.9348E+00  0.1434E+02
  13.300  0.9491E+00  0.1439E+02
  13.350  0.7335E+00  0.1443E+02
  13.400  0.1266E+01  0.1449E+02
  13.450  0.1317E+01  0.1456E+02
  13.500  0.4652E+00  0.1458E+02
  13.550  0.3296E+00  0.1460E+02
  13.600  0.3320E+00  0.1461E+02
  13.650  0.1048E+01  0.1466E+02
  13.700  0.9209E+00  0.1471E+02
  13.750  0.7641E+00  0.1475E+02
  13.800  0.6984E+00  0.1478E+02
  13.850  0.9410E+00  0.1483E+02
  13.900  0.1126E+01  0.1489E+02
  13.950  0.1166E+01  0.1495E+02
  14.000  0.5241E+00  0.1497E+02
  14.050  0.1583E+00  0.1498E+02
  14.100  0.3130E+00  0.1500E+02
  14.150  0.1481E+00  0.1500E+02
  14.200  0.2483E+00  0.1502E+02
  14.250  0.8641E+00  0.1506E+02
  14.300  0.1242E+01  0.1512E+02
  14.350  0.1296E+01  0.1519E+02
  14.400  0.6854E+00  0.1522E+02
  14.450  0.4070E+00  0.1524E+02
  14.500  0.3151E+00  0.1526E+02
  14.550  0.2831E+00  0.1527E+02
  14.600  0.7779E+00  0.1531E+02
  14.650  0.1111E+01  0.1536E+02
  14.700  0.1152E+01  0.1542E+02
  14.750  0.9375E+00  0.1547E+02
  14.800  0.1258E+01  0.1553E+02
  14.850  0.1469E+01  0.1560E+02
  14.900  0.1151E+01  0.1566E+02
  14.950  0.3810E+00  0.1568E+02
  15.000  0.3130E+00  0.1570E+02
  15.050  0.8251E-01  0.1570E+02
  15.100  0.5781E-01  0.1570E+02
  15.150  0.3433E+00  0.1572E+02
  15.200  0.4924E+00  0.1575E+02
  15.250  0.2031E+00  0.1576E+02
  15.300  0.1591E-01  0.1576E+02
  15.350  0.1810E-03  0.1576E+02
  15.400  0.2249E-05  0.1576E+02
  15.450  0.7341E-03  0.1576E+02
  15.500  0.3707E-01  0.1576E+02
  15.550  0.2534E+00  0.1577E+02
  15.600  0.2344E+00  0.1578E+02
  15.650  0.2935E-01  0.1578E+02
  15.700  0.5260E-03  0.1578E+02
  15.750  0.3739E-02  0.1578E+02
  15.800  0.6745E-01  0.1579E+02
  15.850  0.2410E+00  0.1580E+02
  15.900  0.5785E+00  0.1583E+02
  15.950  0.4466E+00  0.1585E+02
  16.000  0.5063E-01  0.1585E+02
  16.050  0.3967E-02  0.1585E+02
  16.100  0.1025E+00  0.1586E+02
  16.150  0.4584E+00  0.1588E+02
  16.200  0.4342E+00  0.1590E+02
  16.250  0.3187E+00  0.1592E+02
  16.300  0.7685E-01  0.1592E+02
  16.350  0.1539E+00  0.1593E+02
  16.400  0.4625E+00  0.1595E+02
  16.450  0.2067E+00  0.1597E+02
  16.500  0.1384E+00  0.1597E+02
  16.550  0.3129E+00  0.1599E+02
  16.600  0.1050E+00  0.1599E+02
  16.650  0.4773E-02  0.1599E+02
  16.700  0.2936E-04  0.1599E+02
  16.750  0.2444E-07  0.1599E+02
  16.800  0.2753E-11  0.1599E+02
  16.850  0.4196E-16  0.1599E+02
  16.900  0.8658E-22  0.1599E+02
  16.950  0.2418E-28  0.1599E+02
  17.000  0.9136E-36  0.1599E+02
  17.050  0.4672E-44  0.1599E+02
  17.100  0.2270E-45  0.1599E+02
  17.150  0.5222E-37  0.1599E+02
  17.200  0.1626E-29  0.1599E+02
  17.250  0.6848E-23  0.1599E+02
  17.300  0.3905E-17  0.1599E+02
  17.350  0.3013E-12  0.1599E+02
  17.400  0.3146E-08  0.1599E+02
  17.450  0.4446E-05  0.1599E+02
  17.500  0.8504E-03  0.1599E+02
  17.550  0.2201E-01  0.1599E+02
  17.600  0.7711E-01  0.1600E+02
  17.650  0.3656E-01  0.1600E+02
  17.700  0.2346E-02  0.1600E+02
  17.750  0.2037E-04  0.1600E+02
  17.800  0.2393E-07  0.1600E+02
  17.850  0.3807E-11  0.1600E+02
  17.900  0.8193E-16  0.1600E+02
  17.950  0.2387E-21  0.1600E+02
  18.000  0.9408E-28  0.1600E+02
  18.050  0.5020E-35  0.1600E+02
  18.100  0.3624E-43  0.1600E+02
  18.150  0.3542E-52  0.1600E+02
  18.200  0.4684E-62  0.1600E+02
  18.250  0.8383E-73  0.1600E+02
  18.300  0.4528E-84  0.1600E+02
  18.350  0.2498E-84  0.1600E+02
  18.400  0.2498E-84  0.1600E+02
  18.450  0.2498E-84  0.1600E+02
  18.500  0.2498E-84  0.1600E+02
  18.550  0.2498E-84  0.1600E+02
  18.600  0.2498E-84  0.1600E+02
  18.650  0.2498E-84  0.1600E+02
  18.700  0.2498E-84  0.1600E+02
  18.750  0.2498E-84  0.1600E+02
  18.800  0.2498E-84  0.1600E+02
  18.850  0.2498E-84  0.1600E+02
  18.900  0.2498E-84  0.1600E+02
  18.950  0.2498E-84  0.1600E+02
  19.000  0.2498E-84  0.1600E+02
  19.050  0.2498E-84  0.1600E+02
  19.100  0.2498E-84  0.1600E+02
  19.150  0.2498E-84  0.1600E+02
  19.200  0.2498E-84  0.1600E+02
  19.250  0.2498E-84  0.1600E+02
  19.300  0.2498E-84  0.1600E+02
  19.350  0.2498E-84  0.1600E+02
  19.400  0.2498E-84  0.1600E+02
  19.450  0.2498E-84  0.1600E+02
  19.500  0.2498E-84  0.1600E+02
  19.550  0.2498E-84  0.1600E+02
  19.600  0.2498E-84  0.1600E+02
  19.650  0.2498E-84  0.1600E+02
  19.700  0.2498E-84  0.1600E+02
  19.750  0.2498E-84  0.1600E+02
  19.800  0.2498E-84  0.1600E+02
  19.850  0.2498E-84  0.1600E+02
  19.900  0.2498E-84  0.1600E+02
  19.950  0.2498E-84  0.1600E+02
  20.000  0.2498E-84  0.1600E+02
